N/A N/A N/A N/A N/A N/A
0.868200 0.868200 0.868200 1.310530 1.310530 1.310530
0.825480 0.825480 0.825480 1.163930 1.163930 1.163930
0.850990 0.850990 0.850990 1.137190 1.137190 1.137190
0.841300 0.841300 0.841300 1.043090 1.043090 1.043090
0.813810 0.813810 0.813810 0.984040 0.984040 0.984040
0.785880 0.785880 0.785880 0.907270 0.907270 0.907270
0.651760 0.651760 0.651760 0.717310 0.717310 0.717310
0.669300 0.669300 0.669300 0.743690 0.743690 0.743690
0.699170 0.699170 0.699170 0.789790 0.789790 0.789790
0.741490 0.741490 0.741490 0.843240 0.843240 0.843240
0.764100 0.764100 0.764100 0.873800 0.873800 0.873800
0.776210 0.776210 0.776210 0.895580 0.895580 0.895580
0.715850 0.715850 0.715850 0.854090 0.854090 0.854090
0.699610 0.699610 0.699610 0.852500 0.852500 0.852500
0.668150 0.668150 0.668150 0.820250 0.820250 0.820250
0.628340 0.628340 0.628340 0.768070 0.768070 0.768070
0.610180 0.610180 0.610180 0.764230 0.764230 0.764230
0.574610 0.574610 0.574610 0.719810 0.719810 0.719810
0.991480 0.991480 0.991480 1.224770 1.224770 1.224770
1.054740 1.054740 1.054740 1.353300 1.353300 1.353300
1.082950 1.082950 1.082950 1.403740 1.403740 1.403740
1.165530 1.165530 1.165530 1.495010 1.495010 1.495010
1.241150 1.241150 1.241150 1.578320 1.578320 1.578320
1.254230 1.254230 1.254230 1.618420 1.618420 1.618420
1.142700 1.142700 1.142700 1.550270 1.550270 1.550270
1.158800 1.158800 1.158800 1.561960 1.561960 1.561960
1.182860 1.182860 1.182860 1.648710 1.648710 1.648710
1.186760 1.186760 1.186760 1.537030 1.537030 1.537030
0.892340 0.892340 0.892340 1.097490 1.097490 1.097490
0.750470 0.750470 0.750470 0.953430 0.953430 0.953430
0.483420 0.483420 0.483420 0.590320 0.590320 0.590320
0.552400 0.552400 0.552400 0.685430 0.685430 0.685430
0.654200 0.654200 0.654200 0.796780 0.796780 0.796780
0.721060 0.721060 0.721060 0.858600 0.858600 0.858600
0.701960 0.701960 0.701960 0.836270 0.836270 0.836270
0.689120 0.689120 0.689120 0.839690 0.839690 0.839690
0.678050 0.678050 0.678050 0.848270 0.848270 0.848270
0.615060 0.615060 0.615060 0.785640 0.785640 0.785640
0.605240 0.605240 0.605240 0.796350 0.796350 0.796350
0.609510 0.609510 0.609510 0.831070 0.831070 0.831070
0.633880 0.633880 0.633880 0.855240 0.855240 0.855240
0.635490 0.635490 0.635490 0.878450 0.878450 0.878450
0.796980 0.796980 0.796980 1.136880 1.136880 1.136880
0.718620 0.718620 0.718620 1.012860 1.012860 1.012860
0.727320 0.727320 0.727320 0.953370 0.953370 0.953370
0.736920 0.736920 0.736920 0.945660 0.945660 0.945660
0.758140 0.758140 0.758140 1.048350 1.048350 1.048350
0.722780 0.722780 0.722780 1.024890 1.024890 1.024890
